TITLE	
DATA TYPE	
ORIGIN	JASCO
OWNER	
DATE	17/11/02
TIME	14:29:00
SPECTROMETER/DATA SYSTEM	JASCO Corp., V-770, Rev. 1.00
RESOLUTION	
DELTAX	-1
XUNITS	NANOMETERS
YUNITS	REFLECTANCE
FIRSTX	2700
LASTX	200
NPOINTS	2501
FIRSTY	-157.882
MAXY	183.751
MINY	-1283.87
XYDATA
2700	-157.882
2699	-1283.87
2698	-39.5113
2697	183.751
2696	-2.6432
2695	45.8517
2694	-170.896
2693	-92.3119
2692	69.5527
2691	34.426
2690	-20.529
2689	21.7044
2688	39.4942
2687	0.590122
2686	91.9814
2685	-1.14179
2684	78.9123
2683	71.0402
2682	-9.08814
2681	72.576
2680	29.7966
2679	31.2384
2678	106.392
2677	-38.5794
2676	76.3639
2675	13.0063
2674	29.284
2673	95.2579
2672	27.3696
2671	42.747
2670	43.9628
2669	28.5228
2668	52.4897
2667	54.7154
2666	14.9781
2665	77.6364
2664	19.5998
2663	75.5102
2662	76.3993
2661	30.8587
2660	51.9059
2659	65.5851
2658	29.9496
2657	86.0193
2656	52.7181
2655	31.9125
2654	86.4251
2653	36.3491
2652	77.4887
2651	63.1244
2650	43.153
2649	61.5473
2648	50.565
2647	62.3137
2646	42.5971
2645	45.0691
2644	39.4927
2643	38.6386
2642	26.2077
2641	34.6294
2640	34.8926
2639	42.528
2638	52.1016
2637	32.09
2636	59.6454
2635	64.2197
2634	38.9153
2633	44.2205
2632	36.6652
2631	46.721
2630	87.0398
2629	27.0191
2628	53.5799
2627	50.551
2626	31.0372
2625	71.1915
2624	61.6977
2623	44.5246
2622	61.8904
2621	36.3542
2620	36.2318
2619	89.1822
2618	24.0549
2617	37.7743
2616	75.5545
2615	44.9577
2614	88.3547
2613	40.093
2612	47.0878
2611	57.2131
2610	43.19
2609	58.6793
2608	55.104
2607	53.0948
2606	34.0723
2605	30.123
2604	63.4602
2603	74.6504
2602	44.8905
2601	57.6191
2600	64.7751
2599	38.6271
2598	71.5927
2597	46.0487
2596	66.0227
2595	52.8746
2594	27.8213
2593	43.4726
2592	37.4159
2591	30.5361
2590	39.6396
2589	6.33349
2588	41.0483
2587	51.6608
2586	44.3193
2585	57.7217
2584	16.048
2583	34.5806
2582	37.594
2581	39.4855
2580	37.6236
2579	45.3293
2578	41.5419
2577	44.3421
2576	35.1376
2575	31.2632
2574	58.1357
2573	41.9929
2572	52.1502
2571	47.1839
2570	30.4937
2569	51.3983
2568	73.2115
2567	28.5832
2566	65.8285
2565	48.9488
2564	49.5551
2563	60.1543
2562	77.8829
2561	54.51
2560	43.3226
2559	53.3835
2558	59.5536
2557	37.5796
2556	46.219
2555	48.957
2554	49.3209
2553	37.5978
2552	43.9044
2551	51.6674
2550	71.0732
2549	59.768
2548	56.3763
2547	48.2733
2546	41.2381
2545	50.6666
2544	65.2866
2543	56.5512
2542	46.0202
2541	31.3076
2540	47.8508
2539	56.2306
2538	47.3914
2537	42.9355
2536	36.0277
2535	42.7712
2534	50.8312
2533	39.4561
2532	50.5753
2531	41.9577
2530	35.8912
2529	57.7249
2528	45.8758
2527	52.9825
2526	48.6718
2525	29.9513
2524	59.1814
2523	47.2844
2522	34.7658
2521	40.8079
2520	43.1655
2519	37.2265
2518	56.1919
2517	42.4194
2516	42.1872
2515	45.8987
2514	42.9062
2513	44.3827
2512	48.0426
2511	51.7063
2510	54.858
2509	45.7091
2508	53.6728
2507	50.0204
2506	44.1515
2505	59.842
2504	51.0615
2503	50.3697
2502	42.1127
2501	45.9597
2500	57.5809
2499	48.2205
2498	45.9757
2497	47.588
2496	55.885
2495	45.5591
2494	52.6229
2493	47.2932
2492	55.979
2491	43.7232
2490	45.1336
2489	46.2567
2488	47.4168
2487	47.2929
2486	38.3156
2485	40.2879
2484	55.1271
2483	53.0111
2482	41.6245
2481	54.35
2480	52.3793
2479	46.1694
2478	46.0591
2477	47.5905
2476	46.4247
2475	43.7729
2474	45.0992
2473	47.666
2472	44.0386
2471	48.4665
2470	52.1813
2469	38.6778
2468	52.8273
2467	49.8388
2466	36.9481
2465	50.9974
2464	47.5376
2463	52.2609
2462	52.1309
2461	49.4123
2460	44.8818
2459	48.326
2458	47.7495
2457	42.3129
2456	47.9225
2455	54.3171
2454	42.4004
2453	45.4927
2452	51.0403
2451	50.3197
2450	60.2778
2449	42.4974
2448	30.3159
2447	49.1945
2446	48.8592
2445	41.5594
2444	43.6814
2443	50.381
2442	49.7108
2441	44.8985
2440	42.0052
2439	46.4816
2438	46.2353
2437	46.1431
2436	50.8016
2435	48.6565
2434	46.4346
2433	49.1761
2432	35.4495
2431	46.8123
2430	35.5541
2429	49.5235
2428	47.0119
2427	45.6734
2426	50.5434
2425	44.9586
2424	49.9203
2423	55.6523
2422	42.2944
2421	53.9916
2420	43.6695
2419	40.6702
2418	50.4684
2417	49.689
2416	40.2384
2415	52.5025
2414	44.8226
2413	53.7132
2412	53.3441
2411	41.1893
2410	55.3975
2409	47.8657
2408	42.5899
2407	51.3288
2406	39.5246
2405	49.1762
2404	53.1908
2403	47.1205
2402	50.4423
2401	51.8769
2400	49.5233
2399	47.3058
2398	48.375
2397	43.3128
2396	52.7477
2395	40.406
2394	56.2771
2393	47.763
2392	45.1643
2391	48.9799
2390	42.6285
2389	42.7915
2388	52.6605
2387	43.5978
2386	55.53
2385	42.0306
2384	41.9224
2383	53.2724
2382	46.7222
2381	54.3375
2380	51.7267
2379	43.3471
2378	50.2696
2377	46.6315
2376	43.3508
2375	51.1767
2374	39.9154
2373	50.9261
2372	46.7042
2371	42.2548
2370	55.017
2369	42.4634
2368	44.425
2367	52.9553
2366	43.1654
2365	43.9463
2364	44.0301
2363	42.0117
2362	49.5234
2361	45.6995
2360	49.6972
2359	41.7565
2358	51.4937
2357	47.3645
2356	50.2556
2355	44.2948
2354	52.0241
2353	47.6335
2352	49.3102
2351	54.4836
2350	48.9384
2349	48.2097
2348	43.9323
2347	40.486
2346	53.8208
2345	47.927
2344	47.2889
2343	47.9974
2342	40.2638
2341	44.1512
2340	50.9053
2339	41.0301
2338	49.9608
2337	48.2618
2336	49.3709
2335	50.5812
2334	38.1528
2333	50.6127
2332	50.5882
2331	37.7071
2330	47.0678
2329	48.76
2328	41.7732
2327	53.1934
2326	38.881
2325	51.9872
2324	49.1254
2323	45.7577
2322	50.838
2321	46.5234
2320	48.1142
2319	60.4995
2318	42.7853
2317	45.373
2316	51.5405
2315	47.3005
2314	52.6012
2313	45.3832
2312	41.7798
2311	55.6485
2310	46.4294
2309	47.5743
2308	46.1877
2307	43.371
2306	52.5425
2305	51.0809
2304	39.353
2303	52.9976
2302	46.4037
2301	44.2834
2300	48.5413
2299	43.3529
2298	53.0399
2297	50.6596
2296	43.3819
2295	50.8671
2294	45.3726
2293	47.4426
2292	47.9444
2291	42.3052
2290	49.0688
2289	50.7168
2288	34.0536
2287	52.8775
2286	45.1649
2285	50.7892
2284	46.3043
2283	45.6328
2282	50.8083
2281	38.575
2280	50.8519
2279	56.9138
2278	45.6707
2277	46.7153
2276	50.6476
2275	43.3275
2274	51.949
2273	51.5962
2272	44.832
2271	49.4525
2270	47.941
2269	49.4691
2268	42.9493
2267	43.8181
2266	50.1202
2265	51.5553
2264	47.9806
2263	57.4498
2262	41.7339
2261	51.9531
2260	47.1775
2259	42.8206
2258	45.2728
2257	47.7947
2256	45.8295
2255	45.0113
2254	47.9998
2253	51.3825
2252	44.5042
2251	42.1041
2250	48.4285
2249	50.6047
2248	40.5356
2247	46.2986
2246	47.4846
2245	54.184
2244	52.4629
2243	41.8483
2242	49.7321
2241	52.8167
2240	44.8274
2239	47.9459
2238	47.6695
2237	46.0197
2236	49.7731
2235	45.6989
2234	48.9609
2233	44.2232
2232	42.7902
2231	47.4354
2230	44.9908
2229	44.8359
2228	51.6294
2227	46.8922
2226	48.8615
2225	39.2465
2224	47.2569
2223	53.5381
2222	45.3534
2221	47.5239
2220	46.815
2219	45.6028
2218	51.3379
2217	41.5089
2216	43.1204
2215	49.9767
2214	43.0055
2213	51.1932
2212	47.5382
2211	47.4535
2210	47.5807
2209	47.9038
2208	41.8166
2207	45.633
2206	45.6358
2205	52.6873
2204	44.7286
2203	46.9486
2202	51.7722
2201	44.5954
2200	48.251
2199	49.0894
2198	48.005
2197	44.8096
2196	45.4784
2195	48.3771
2194	49.2971
2193	44.6713
2192	43.6064
2191	51.7221
2190	47.5349
2189	46.4683
2188	46.7979
2187	47.7751
2186	47.716
2185	42.536
2184	52.85
2183	46.657
2182	42.7276
2181	47.593
2180	45.3817
2179	46.9204
2178	49.0978
2177	44.7236
2176	50.5059
2175	49.5793
2174	43.0509
2173	52.6967
2172	44.6686
2171	44.9014
2170	45.9702
2169	47.4484
2168	49.9198
2167	48.2056
2166	43.3911
2165	47.7784
2164	41.6717
2163	41.7355
2162	53.3022
2161	44.3777
2160	43.1256
2159	48.3263
2158	44.1483
2157	45.4738
2156	48.9896
2155	49.8057
2154	46.4841
2153	42.2005
2152	42.4388
2151	49.8182
2150	40.9584
2149	48.5794
2148	47.5379
2147	50.8121
2146	47.9254
2145	45.0073
2144	46.5397
2143	46.1807
2142	45.4254
2141	47.7446
2140	47.9379
2139	51.5208
2138	49.9258
2137	45.2804
2136	47.1404
2135	50.4132
2134	46.2221
2133	48.6639
2132	44.9025
2131	44.3428
2130	46.6795
2129	45.2872
2128	47.6685
2127	48.1036
2126	46.9743
2125	48.335
2124	44.4426
2123	42.4842
2122	47.1337
2121	47.7773
2120	52.165
2119	52.6293
2118	44.6563
2117	47.5374
2116	46.9758
2115	48.3773
2114	46.4949
2113	46.9055
2112	48.8634
2111	39.9321
2110	46.0489
2109	48.0649
2108	45.9893
2107	47.5283
2106	43.4022
2105	47.7271
2104	51.5459
2103	43.6347
2102	46.4137
2101	52.212
2100	43.8242
2099	45.3018
2098	49.8128
2097	47.6081
2096	48.1147
2095	45.0439
2094	46.4306
2093	51.8788
2092	45.9706
2091	47.4234
2090	47.3228
2089	43.8915
2088	52.4342
2087	46.4187
2086	42.0018
2085	50.0134
2084	44.3124
2083	46.4823
2082	49.6959
2081	47.5492
2080	50.0928
2079	46.7248
2078	42.853
2077	46.7205
2076	41.7812
2075	46.2995
2074	49.2337
2073	46.8312
2072	53.1395
2071	52.4365
2070	43.2061
2069	48.1771
2068	42.3388
2067	49.8366
2066	45.0139
2065	41.7834
2064	43.0722
2063	48.0413
2062	44.5266
2061	53.7945
2060	45.5128
2059	46.2827
2058	53.2065
2057	43.9529
2056	53.2903
2055	46.8233
2054	38.3886
2053	49.772
2052	46.1265
2051	51.4775
2050	44.4769
2049	44.3783
2048	49.2481
2047	45.3651
2046	49.2835
2045	48.5084
2044	45.5833
2043	48.5238
2042	49.2186
2041	42.2429
2040	47.8698
2039	44.6727
2038	46.8535
2037	50.3676
2036	46.3338
2035	46.708
2034	49.7748
2033	42.8881
2032	43.5232
2031	48.3451
2030	42.1878
2029	43.6094
2028	46.1937
2027	46.9459
2026	50.5661
2025	45.7941
2024	46.3696
2023	44.246
2022	42.6607
2021	54.1621
2020	44.3613
2019	43.6792
2018	47.7701
2017	46.7005
2016	49.8583
2015	41.811
2014	46.2945
2013	50.7579
2012	42.4116
2011	48.9129
2010	51.8638
2009	41.7368
2008	47.276
2007	46.2557
2006	46.493
2005	50.5859
2004	47.9801
2003	44.876
2002	48.3333
2001	43.9458
2000	50.5363
1999	47.3842
1998	43.8557
1997	54.5246
1996	43.2728
1995	47.705
1994	52.0757
1993	42.3243
1992	47.2064
1991	42.7161
1990	43.3621
1989	52.3734
1988	46.3738
1987	46.2303
1986	47.2736
1985	44.2681
1984	49.4192
1983	46.2931
1982	46.2339
1981	48.8338
1980	43.1193
1979	48.9371
1978	42.4956
1977	45.5085
1976	47.4815
1975	47.7863
1974	40.02
1973	48.8519
1972	42.1268
1971	45.4058
1970	49.671
1969	47.1147
1968	49.1146
1967	45.7348
1966	46.6693
1965	50.4805
1964	46.831
1963	45.9134
1962	47.4189
1961	42.1694
1960	48.9156
1959	50.0119
1958	45.8367
1957	48.7741
1956	44.3955
1955	50.8881
1954	48.0294
1953	43.5682
1952	49.659
1951	50.9137
1950	50.2849
1949	46.4672
1948	46.3063
1947	44.278
1946	49.8005
1945	42.7331
1944	49.6407
1943	45.1136
1942	49.4707
1941	48.1237
1940	45.0959
1939	45.9955
1938	47.3087
1937	44.6323
1936	48.6258
1935	44.2841
1934	47.1098
1933	45.2254
1932	43.7296
1931	44.9682
1930	47.0848
1929	45.8329
1928	48.8219
1927	49.0757
1926	48.8061
1925	44.4016
1924	44.7591
1923	41.345
1922	50.7463
1921	45.419
1920	47.7662
1919	44.0253
1918	47.7703
1917	47.7572
1916	48.4351
1915	46.889
1914	47.1047
1913	45.4285
1912	46.5212
1911	44.3572
1910	46.9569
1909	49.5569
1908	46.4441
1907	48.1186
1906	48.3325
1905	45.8353
1904	47.2454
1903	51.2041
1902	46.9482
1901	51.5982
1900	46.8669
1899	53.4083
1898	48.2971
1897	47.9622
1896	46.7807
1895	45.7087
1894	46.5577
1893	48.1164
1892	45.8969
1891	45.0971
1890	49.1103
1889	48.9087
1888	48.3715
1887	47.0962
1886	47.3886
1885	46.6836
1884	45.4489
1883	46.8204
1882	46.1096
1881	48.2136
1880	50.1972
1879	43.7499
1878	48.6569
1877	46.5502
1876	45.8802
1875	50.5449
1874	46.8341
1873	49.8661
1872	50.214
1871	46.9514
1870	47.1982
1869	47.6621
1868	44.0021
1867	46.5325
1866	44.0372
1865	48.1389
1864	49.1356
1863	42.6111
1862	46.2642
1861	48.7721
1860	46.4529
1859	48.177
1858	44.6857
1857	46.2984
1856	46.5656
1855	42.8244
1854	48.4037
1853	49.0991
1852	46.0445
1851	47.3615
1850	45.4935
1849	47.2256
1848	47.3665
1847	42.7281
1846	45.9419
1845	45.9403
1844	47.5498
1843	49.9217
1842	47.8604
1841	51.1616
1840	47.7619
1839	47.465
1838	46.6634
1837	45.8796
1836	48.0385
1835	48.8379
1834	46.8939
1833	47.6254
1832	45.4688
1831	44.1717
1830	47.0699
1829	47.3424
1828	49.4278
1827	46.8586
1826	47.6644
1825	48.522
1824	46.9166
1823	42.1462
1822	48.4501
1821	48.1806
1820	45.4553
1819	46.9454
1818	45.3153
1817	45.8079
1816	47.3914
1815	46.0299
1814	46.8279
1813	45.9339
1812	46.2049
1811	49.695
1810	47.6031
1809	44.3143
1808	48.7604
1807	45.7869
1806	48.003
1805	44.3588
1804	47.1858
1803	46.9487
1802	46.5292
1801	46.7501
1800	49.2515
1799	45.8265
1798	47.2128
1797	45.0272
1796	50.1063
1795	47.6132
1794	46.2899
1793	45.2211
1792	46.0863
1791	44.2822
1790	47.8091
1789	46.9365
1788	47.5995
1787	49.8002
1786	45.3967
1785	49.6143
1784	47.0103
1783	45.3224
1782	48.0344
1781	47.6376
1780	48.4368
1779	46.9242
1778	45.6201
1777	47.1358
1776	48.1149
1775	47.9521
1774	47.5392
1773	46.891
1772	46.4718
1771	50.0525
1770	47.366
1769	46.543
1768	47.5996
1767	47.1272
1766	46.9884
1765	46.8379
1764	47.4588
1763	48.4177
1762	45.9567
1761	47.4655
1760	46.2705
1759	45.4956
1758	49.5959
1757	44.0622
1756	47.5414
1755	47.9785
1754	45.9909
1753	48.7832
1752	47.8309
1751	45.3107
1750	49.119
1749	44.6326
1748	46.829
1747	48.5798
1746	45.6468
1745	45.4004
1744	46.9102
1743	46.7326
1742	48.7199
1741	47.263
1740	46.4597
1739	47.8721
1738	46.7771
1737	47.8628
1736	45.9523
1735	46.0906
1734	48.8322
1733	45.43
1732	47.7263
1731	48.3882
1730	46.5714
1729	48.1627
1728	48.8819
1727	46.3166
1726	48.4951
1725	46.2677
1724	48.1369
1723	48.0743
1722	47.7953
1721	48.849
1720	47.662
1719	45.8679
1718	47.9434
1717	46.9159
1716	47.941
1715	48.8136
1714	45.0856
1713	47.3864
1712	47.6816
1711	43.9179
1710	46.6702
1709	45.6407
1708	46.7791
1707	47.9827
1706	45.2929
1705	49.2389
1704	47.2511
1703	46.4648
1702	49.3453
1701	44.798
1700	48.4806
1699	47.3801
1698	46.4671
1697	48.6984
1696	48.7058
1695	45.9954
1694	47.6811
1693	45.8669
1692	48.2229
1691	49.4585
1690	45.8061
1689	48.9695
1688	44.0029
1687	47.81
1686	46.6561
1685	47.7015
1684	46.5223
1683	45.7231
1682	47.1625
1681	46.6393
1680	45.4768
1679	45.2188
1678	49.7436
1677	46.6193
1676	46.9667
1675	48.2175
1674	45.5308
1673	48.4386
1672	47.3111
1671	46.1265
1670	49.6231
1669	47.2458
1668	48.4442
1667	47.4598
1666	46.9724
1665	48.7433
1664	48.5718
1663	47.0455
1662	48.1513
1661	49.4395
1660	47.8896
1659	45.7383
1658	47.0639
1657	48.3746
1656	47.3432
1655	47.5677
1654	48.5338
1653	44.5406
1652	48.8287
1651	45.3131
1650	47.2824
1649	48.542
1648	45.634
1647	47.1647
1646	47.6142
1645	45.2997
1644	45.5042
1643	47.1865
1642	45.8493
1641	47.3109
1640	47.158
1639	43.9357
1638	49.6519
1637	46.1064
1636	46.6682
1635	48.4193
1634	47.9043
1633	46.4099
1632	46.5325
1631	46.2545
1630	49.8116
1629	46.7903
1628	47.1995
1627	47.1138
1626	46.9437
1625	48.6705
1624	47.9561
1623	46.0895
1622	46.899
1621	46.5244
1620	46.1096
1619	46.7022
1618	47.2599
1617	47.2554
1616	45.9127
1615	47.3338
1614	48.0194
1613	47.8792
1612	47.1379
1611	48.6386
1610	48.0296
1609	47.464
1608	46.1791
1607	45.7564
1606	46.7501
1605	46.0465
1604	46.4801
1603	46.5037
1602	48.0611
1601	48.7032
1600	46.7464
1599	47.4984
1598	47.7815
1597	46.2586
1596	47.7477
1595	47.573
1594	45.1202
1593	45.1571
1592	47.5731
1591	46.7813
1590	46.1958
1589	47.0916
1588	48.3748
1587	46.9385
1586	46.4053
1585	47.3952
1584	47.5863
1583	48.6604
1582	47.5136
1581	47.1898
1580	48.3056
1579	46.4623
1578	47.2886
1577	46.9433
1576	46.8552
1575	49.8139
1574	45.8949
1573	46.366
1572	49.1446
1571	47.0071
1570	49.1762
1569	46.6049
1568	46.3642
1567	49.4766
1566	48.6152
1565	46.6229
1564	48.0329
1563	45.9428
1562	48.0475
1561	48.4083
1560	47.0058
1559	48.3069
1558	47.2684
1557	47.2444
1556	48.3604
1555	47.331
1554	48.3929
1553	47.2522
1552	44.646
1551	48.1517
1550	46.6873
1549	48.0677
1548	47.6096
1547	46.0618
1546	48.6375
1545	47.6474
1544	47.1467
1543	47.444
1542	46.8198
1541	47.8112
1540	46.1251
1539	46.0245
1538	47.3023
1537	48.4359
1536	47.3882
1535	46.531
1534	45.9484
1533	47.2796
1532	48.0681
1531	47.6897
1530	48.4168
1529	47.8165
1528	47.5273
1527	48.3091
1526	46.5773
1525	48.6122
1524	50.3871
1523	46.5473
1522	46.448
1521	47.4345
1520	48.2111
1519	48.4164
1518	47.2568
1517	46.4772
1516	48.4511
1515	46.0311
1514	48.7462
1513	47.7785
1512	46.1847
1511	48.6198
1510	46.8381
1509	47.1135
1508	47.8215
1507	46.3684
1506	47.6117
1505	46.2669
1504	47.3825
1503	49.044
1502	46.7019
1501	47.253
1500	46.7903
1499	47.229
1498	48.063
1497	47.271
1496	47.1473
1495	48.4413
1494	47.6413
1493	47.11
1492	47.7542
1491	46.9199
1490	48.3625
1489	47.8288
1488	48.8178
1487	47.4929
1486	47.6127
1485	47.7726
1484	47.3594
1483	46.919
1482	47.4268
1481	46.4007
1480	45.6827
1479	47.9468
1478	46.6891
1477	47.134
1476	48.7944
1475	47.6725
1474	47.1683
1473	47.2539
1472	46.8998
1471	47.5997
1470	48.1271
1469	47.7968
1468	47.6826
1467	46.8865
1466	48.9661
1465	47.866
1464	47.3501
1463	47.7766
1462	47.772
1461	48.2172
1460	49.155
1459	47.5121
1458	48.1666
1457	47.8344
1456	46.1113
1455	48.902
1454	47.523
1453	46.8676
1452	47.251
1451	45.4792
1450	49.233
1449	48.2264
1448	45.4972
1447	48.6723
1446	47.6062
1445	48.1986
1444	48.5103
1443	46.6402
1442	47.5191
1441	46.1282
1440	46.2437
1439	45.5911
1438	46.8582
1437	47.9703
1436	49.0555
1435	47.9666
1434	47.5101
1433	47.05
1432	46.8177
1431	48.7804
1430	45.1448
1429	47.5416
1428	47.9436
1427	48.2473
1426	50.0562
1425	47.2779
1424	45.2711
1423	48.6194
1422	45.5104
1421	47.5986
1420	48.1243
1419	47.3656
1418	49.0918
1417	47.1278
1416	46.5365
1415	50.0063
1414	46.5634
1413	47.6683
1412	49.3464
1411	48.003
1410	48.8137
1409	46.9833
1408	48.0044
1407	48.5252
1406	46.5416
1405	48.1658
1404	46.9249
1403	47.4347
1402	48.8187
1401	46.567
1400	46.3254
1399	49.0523
1398	46.3631
1397	48.2873
1396	48.953
1395	45.7109
1394	48.4354
1393	47.826
1392	47.6448
1391	50.1486
1390	47.2273
1389	48.0457
1388	47.494
1387	46.441
1386	48.1115
1385	46.7575
1384	47.1251
1383	49.331
1382	46.8847
1381	47.8914
1380	47.942
1379	46.2552
1378	48.9425
1377	46.9245
1376	47.1086
1375	46.9379
1374	46.5618
1373	48.0642
1372	49.3148
1371	46.4326
1370	49.0087
1369	46.5869
1368	48.2736
1367	48.9756
1366	47.9256
1365	47.2705
1364	48.0606
1363	46.2886
1362	48.1268
1361	47.3137
1360	46.4285
1359	49.4563
1358	45.605
1357	47.9145
1356	49.5072
1355	45.8899
1354	49.0092
1353	47.8161
1352	47.5145
1351	49.8887
1350	46.6886
1349	47.1305
1348	48.076
1347	46.7258
1346	47.9744
1345	47.5358
1344	46.9227
1343	49.3015
1342	46.8596
1341	47.4827
1340	47.9887
1339	46.1236
1338	47.227
1337	47.9814
1336	47.6434
1335	50.2883
1334	47.1302
1333	47.8537
1332	47.1219
1331	47.8067
1330	48.7472
1329	47.9687
1328	47.5631
1327	48.5484
1326	48.8066
1325	48.0575
1324	47.2706
1323	47.4125
1322	48.2439
1321	48.848
1320	47.4636
1319	48.6643
1318	47.9677
1317	47.7023
1316	48.001
1315	48.0538
1314	48.7136
1313	46.8236
1312	46.7718
1311	47.9386
1310	48.5796
1309	47.0155
1308	48.9395
1307	47.41
1306	48.6139
1305	47.386
1304	46.7608
1303	49.3013
1302	48.6457
1301	47.1913
1300	48.6121
1299	47.4233
1298	48.308
1297	49.8032
1296	47.9151
1295	48.3749
1294	48.0865
1293	47.6233
1292	47.7319
1291	47.1841
1290	47.2796
1289	47.5727
1288	48.0211
1287	49.1614
1286	48.8566
1285	47.5693
1284	47.5873
1283	47.2542
