TITLE	
DATA TYPE	
ORIGIN	JASCO
OWNER	
DATE	17/11/02
TIME	12:56:00
SPECTROMETER/DATA SYSTEM	JASCO Corp., V-770, Rev. 1.00
RESOLUTION	
DELTAX	-1
XUNITS	NANOMETERS
YUNITS	TRANSMITTANCE
FIRSTX	2700
LASTX	200
NPOINTS	2501
FIRSTY	61.2024
MAXY	73.4376
MINY	-0.858948
XYDATA
2700	61.2024
2699	43.843
2698	73.4376
2697	61.082
2696	60.5345
2695	39.1054
2694	48.9006
2693	40.5896
2692	48.1411
2691	45.9807
2690	52.8517
2689	49.5313
2688	54.9753
2687	55.8249
2686	56.8082
2685	58.4264
2684	54.4952
2683	54.1554
2682	55.8153
2681	51.1631
2680	58.264
2679	55.2812
2678	52.5209
2677	53.6622
2676	56.7724
2675	54.7513
2674	56.0252
2673	54.0155
2672	53.2757
2671	56.5611
2670	54.9613
2669	58.2064
2668	53.609
2667	56.8199
2666	56.7813
2665	58.3935
2664	55.8581
2663	57.5614
2662	56.6185
2661	56.6998
2660	55.5698
2659	53.3456
2658	53.466
2657	54.7195
2656	55.8494
2655	54.717
2654	53.6943
2653	56.1221
2652	54.6772
2651	52.8063
2650	55.0717
2649	53.1564
2648	54.0945
2647	55.9377
2646	54.0085
2645	55.119
2644	56.4437
2643	53.0876
2642	53.8185
2641	53.8242
2640	53.3564
2639	55.0836
2638	52.4473
2637	54.3333
2636	53.5749
2635	52.9153
2634	53.7819
2633	52.7871
2632	54.5632
2631	55.7936
2630	51.0433
2629	53.0169
2628	53.4577
2627	53.8858
2626	54.3132
2625	54.8003
2624	54.5339
2623	54.3619
2622	55.135
2621	55.1102
2620	56.8357
2619	56.1026
2618	55.9768
2617	54.5924
2616	54.4772
2615	53.8307
2614	51.7481
2613	54.5002
2612	53.0333
2611	53.6436
2610	53.6159
2609	52.3316
2608	55.0148
2607	56.0739
2606	54.6266
2605	53.0893
2604	52.0771
2603	52.3441
2602	54.8155
2601	54.8534
2600	54.9078
2599	54.0659
2598	52.2863
2597	52.7507
2596	52.513
2595	48.5215
2594	54.014
2593	51.8212
2592	53.0784
2591	56.2937
2590	54.1821
2589	55.5054
2588	53.7883
2587	54.3433
2586	54.4509
2585	52.7738
2584	52.7735
2583	54.8179
2582	51.5554
2581	56.3625
2580	54.108
2579	53.729
2578	56.4066
2577	54.7871
2576	55.4743
2575	54.9434
2574	53.2067
2573	54.3722
2572	53.8738
2571	53.6203
2570	54.6275
2569	53.3083
2568	54.3535
2567	54.6943
2566	53.675
2565	54.6802
2564	52.7519
2563	51.7078
2562	52.5718
2561	51.0273
2560	53.3407
2559	54.4914
2558	53.4693
2557	54.4724
2556	53.9955
2555	53.7673
2554	54.7713
2553	54.1889
2552	55.1614
2551	56.1907
2550	53.4977
2549	53.4699
2548	53.1739
2547	54.0574
2546	53.4386
2545	52.6359
2544	52.3789
2543	53.5587
2542	52.572
2541	53.8768
2540	53.1796
2539	53.3759
2538	54.3869
2537	53.1728
2536	54.6899
2535	54.38
2534	53.6877
2533	54.4406
2532	53.5835
2531	52.5205
2530	53.8493
2529	53.2046
2528	52.9882
2527	53.4043
2526	52.5538
2525	54.5093
2524	53.9246
2523	52.8993
2522	53.4973
2521	54.19
2520	53.7315
2519	53.8082
2518	53.4236
2517	54.4677
2516	54.4644
2515	53.2939
2514	54.2223
2513	53.653
2512	53.6401
2511	53.8812
2510	53.9564
2509	54.4325
2508	53.9909
2507	53.6275
2506	54.0358
2505	54.0324
2504	54.3833
2503	53.4986
2502	54.0375
2501	53.8385
2500	54.1083
2499	53.0956
2498	54.2738
2497	54.3987
2496	53.5726
2495	54.6905
2494	53.7845
2493	53.633
2492	55.375
2491	53.5058
2490	53.4394
2489	53.8082
2488	54.013
2487	53.7887
2486	53.008
2485	53.102
2484	54.2765
2483	53.8297
2482	53.5673
2481	54.2024
2480	53.5791
2479	53.6687
2478	53.539
2477	53.5211
2476	54.6857
2475	53.8542
2474	53.793
2473	54.0573
2472	53.8653
2471	54.272
2470	53.5596
2469	53.6226
2468	53.9224
2467	53.1926
2466	54.532
2465	54.0421
2464	53.415
2463	53.6675
2462	54.1577
2461	53.7995
2460	54.2594
2459	54.0307
2458	54.1708
2457	53.6607
2456	53.274
2455	53.6395
2454	53.2873
2453	53.7393
2452	53.6973
2451	54.3501
2450	53.4862
2449	54.059
2448	53.1558
2447	53.9955
2446	54.055
2445	52.7607
2444	53.9986
2443	53.6778
2442	53.9495
2441	53.9256
2440	53.748
2439	53.9475
2438	53.4322
2437	52.8336
2436	54.1158
2435	53.458
2434	53.337
2433	53.2684
2432	53.1888
2431	53.9317
2430	53.3097
2429	53.8382
2428	54.4198
2427	53.4298
2426	53.0484
2425	54.2215
2424	52.7733
2423	53.1876
2422	53.3578
2421	53.0819
2420	53.8699
2419	53.4327
2418	53.8659
2417	53.3962
2416	53.6042
2415	53.6364
2414	53.7412
2413	53.1605
2412	54.6296
2411	53.7281
2410	53.6042
2409	53.8266
2408	53.3467
2407	54.1258
2406	53.694
2405	53.3555
2404	54.4075
2403	53.2172
2402	54.3032
2401	54.0468
2400	53.1882
2399	54.1827
2398	53.4499
2397	53.2108
2396	53.8541
2395	53.4249
2394	54.315
2393	54.0165
2392	53.876
2391	54.2802
2390	53.7669
2389	54.1904
2388	53.9507
2387	53.4821
2386	53.8955
2385	53.5408
2384	53.2228
2383	53.4297
2382	53.6811
2381	52.9394
2380	54.3568
2379	53.0668
2378	53.3839
2377	53.7872
2376	53.6859
2375	54.048
2374	53.2048
2373	53.2352
2372	53.6479
2371	54.2667
2370	53.6236
2369	53.2762
2368	53.1096
2367	53.4801
2366	53.3047
2365	53.3033
2364	53.7683
2363	53.2886
2362	53.8646
2361	54.2179
2360	53.6625
2359	53.8815
2358	54.1086
2357	53.4689
2356	54.2704
2355	53.7586
2354	53.5797
2353	54.2911
2352	53.6115
2351	53.8736
2350	53.9977
2349	53.4645
2348	54.1216
2347	53.779
2346	53.7351
2345	53.5903
2344	53.5079
2343	54.1438
2342	53.8971
2341	53.3892
2340	53.5259
2339	53.4496
2338	54.0154
2337	54.0461
2336	53.6262
2335	53.7225
2334	53.7971
2333	53.7627
2332	54.2885
2331	53.5758
2330	53.603
2329	53.8937
2328	53.4723
2327	53.5825
2326	53.341
2325	53.7399
2324	53.9726
2323	53.6612
2322	53.8922
2321	53.9132
2320	53.1707
2319	53.2481
2318	53.5666
2317	53.6826
2316	53.2926
2315	53.711
2314	53.3319
2313	53.8428
2312	53.6927
2311	53.9052
2310	54.1152
2309	53.6802
2308	53.6562
2307	53.409
2306	53.5349
2305	54.1746
2304	53.2693
2303	53.5205
2302	53.8628
2301	53.4374
2300	54.2788
2299	54.0639
2298	53.7257
2297	53.6239
2296	53.6196
2295	53.5608
2294	53.9827
2293	53.4079
2292	53.9052
2291	53.8674
2290	53.2042
2289	53.9362
2288	53.714
2287	53.9546
2286	53.8498
2285	54.0957
2284	54.1561
2283	54.0434
2282	53.5987
2281	53.7755
2280	53.6666
2279	53.8028
2278	53.9417
2277	53.5931
2276	53.4991
2275	53.5743
2274	53.3311
2273	54.3512
2272	53.952
2271	53.4665
2270	53.8498
2269	52.9582
2268	53.5642
2267	53.5454
2266	53.5802
2265	53.9167
2264	53.3737
2263	53.5359
2262	54.2221
2261	53.3714
2260	53.1624
2259	53.7929
2258	53.5234
2257	53.4379
2256	53.0916
2255	53.5948
2254	53.6044
2253	54.065
2252	53.8148
2251	53.9788
2250	52.8843
2249	53.9239
2248	53.5071
2247	53.6893
2246	53.8848
2245	53.682
2244	53.9109
2243	53.9417
2242	53.8041
2241	53.5192
2240	53.8466
2239	53.5884
2238	53.9349
2237	53.4136
2236	53.8093
2235	53.9026
2234	53.081
2233	54.0899
2232	53.4203
2231	53.5251
2230	53.485
2229	53.2114
2228	54.152
2227	53.4971
2226	53.3203
2225	53.9344
2224	53.239
2223	53.6145
2222	53.7876
2221	53.511
2220	54.0048
2219	53.6719
2218	53.6179
2217	53.9401
2216	53.6046
2215	53.693
2214	54.238
2213	53.4311
2212	53.4782
2211	53.992
2210	53.4463
2209	53.4951
2208	53.6565
2207	53.6505
2206	53.9453
2205	53.3154
2204	53.7637
2203	53.1204
2202	53.9549
2201	53.8694
2200	53.6822
2199	53.541
2198	53.8807
2197	53.5416
2196	53.8437
2195	53.769
2194	53.4977
2193	53.6879
2192	53.4959
2191	53.562
2190	53.9749
2189	53.3989
2188	53.8886
2187	53.6279
2186	53.4571
2185	54.4434
2184	53.325
2183	53.7513
2182	53.7386
2181	53.1083
2180	53.9126
2179	53.9249
2178	53.589
2177	54.0125
2176	53.4022
2175	53.8472
2174	54.0118
2173	53.035
2172	53.7264
2171	54.1042
2170	53.3962
2169	53.744
2168	53.1546
2167	53.84
2166	54.3534
2165	53.6444
2164	53.6312
2163	53.3613
2162	53.8224
2161	53.8992
2160	53.2148
2159	53.6942
2158	54.0172
2157	53.2963
2156	53.9302
2155	53.7105
2154	53.4037
2153	53.9692
2152	53.233
2151	53.7694
2150	54.0394
2149	53.5754
2148	53.93
2147	53.5119
2146	53.4215
2145	53.7498
2144	53.0926
2143	53.6477
2142	54.0385
2141	53.3415
2140	53.7942
2139	53.807
2138	53.7048
2137	53.7778
2136	53.2088
2135	53.8486
2134	53.6678
2133	53.4904
2132	54.0274
2131	53.5613
2130	53.2583
2129	53.6272
2128	53.0777
2127	53.3266
2126	53.4572
2125	53.6025
2124	53.8242
2123	53.2192
2122	53.2574
2121	53.7272
2120	53.4918
2119	54.1033
2118	53.7565
2117	53.7448
2116	54.0043
2115	53.4086
2114	53.4442
2113	53.3333
2112	53.2894
2111	53.4874
2110	53.679
2109	53.6616
2108	53.8533
2107	53.577
2106	53.7487
2105	53.5142
2104	53.4745
2103	53.6929
2102	53.5955
2101	53.2791
2100	53.6914
2099	53.3781
2098	53.4708
2097	53.675
2096	53.3134
2095	53.5609
2094	53.4741
2093	53.8618
2092	53.5846
2091	53.3443
2090	53.5419
2089	54.0664
2088	53.494
2087	53.6757
2086	53.6329
2085	53.659
2084	53.8917
2083	53.2395
2082	53.6439
2081	53.7887
2080	53.3938
2079	53.3196
2078	53.6913
2077	53.2646
2076	53.8003
2075	53.4159
2074	53.4764
2073	53.7197
2072	53.2136
2071	53.8471
2070	53.5773
2069	53.2052
2068	53.6393
2067	53.2125
2066	53.4069
2065	53.3087
2064	53.3869
2063	53.9355
2062	53.4729
2061	53.304
2060	53.5223
2059	53.3977
2058	53.8883
2057	53.3334
2056	53.2512
2055	53.7755
2054	53.7362
2053	53.3363
2052	53.7152
2051	53.3581
2050	53.8841
2049	53.8314
2048	53.2587
2047	53.9591
2046	53.3552
2045	53.8687
2044	53.8015
2043	53.4381
2042	53.4627
2041	53.6854
2040	53.679
2039	53.6853
2038	53.4994
2037	53.3801
2036	53.6304
2035	53.2844
2034	53.2725
2033	53.5671
2032	53.2975
2031	53.6611
2030	53.4444
2029	53.1227
2028	53.7432
2027	53.0066
2026	53.5402
2025	53.3987
2024	53.1145
2023	53.6365
2022	53.6005
2021	53.5181
2020	53.7107
2019	53.4098
2018	53.7645
2017	53.3072
2016	53.2697
2015	53.647
2014	53.5626
2013	53.293
2012	53.9352
2011	53.3483
2010	53.7103
2009	53.3551
2008	53.3398
2007	53.7113
2006	53.2764
2005	53.3762
2004	54.015
2003	53.0573
2002	53.462
2001	53.7067
2000	53.1288
1999	53.7246
1998	53.6131
1997	53.4031
1996	53.501
1995	53.6366
1994	53.5566
1993	53.7519
1992	53.236
1991	53.9539
1990	53.3209
1989	53.4752
1988	53.5086
1987	53.4944
1986	53.7211
1985	53.5106
1984	53.3833
1983	53.6848
1982	53.4089
1981	53.5444
1980	53.4928
1979	53.3663
1978	53.6764
1977	53.1855
1976	53.4711
1975	53.5944
1974	53.4255
1973	53.4144
1972	53.6791
1971	53.4602
1970	53.6231
1969	53.5294
1968	53.3163
1967	53.655
1966	53.1868
1965	53.4057
1964	53.5703
1963	53.5295
1962	53.4819
1961	53.3384
1960	53.4454
1959	53.554
1958	53.4234
1957	53.3606
1956	53.7702
1955	53.2854
1954	53.6501
1953	53.3662
1952	53.2473
1951	53.7698
1950	53.1646
1949	53.4559
1948	53.5688
1947	52.8675
1946	53.4683
1945	53.4319
1944	53.4065
1943	53.5173
1942	53.3422
1941	53.7008
1940	53.3827
1939	53.1257
1938	53.6119
1937	53.1449
1936	53.3038
1935	53.6168
1934	53.651
1933	53.4904
1932	53.2515
1931	53.2242
1930	53.3684
1929	53.5982
1928	53.3385
1927	53.5725
1926	53.2479
1925	53.7101
1924	53.7707
1923	53.3889
1922	53.9032
1921	53.7326
1920	53.3343
1919	53.7719
1918	53.5
1917	53.2382
1916	53.6022
1915	53.1878
1914	53.489
1913	53.2888
1912	53.6775
1911	53.4345
1910	53.3755
1909	53.6851
1908	53.4087
1907	53.3854
1906	53.9025
1905	53.7411
1904	53.3034
1903	53.6823
1902	53.1024
1901	53.4773
1900	53.3008
1899	53.6009
1898	53.9418
1897	53.506
1896	53.507
1895	53.545
1894	53.5884
1893	53.601
1892	53.5357
1891	53.3393
1890	53.461
1889	53.0802
1888	53.7256
1887	53.5358
1886	53.6062
1885	53.7603
1884	53.7617
1883	53.4855
1882	53.708
1881	53.2767
1880	53.5467
1879	53.6531
1878	53.4251
1877	53.7127
1876	53.6732
1875	53.5134
1874	53.8622
1873	53.315
1872	53.4932
1871	53.1459
1870	53.2696
1869	53.4783
1868	53.5616
1867	53.4826
1866	53.7155
1865	53.3021
1864	53.3891
1863	53.7134
1862	53.6095
1861	53.6094
1860	53.6551
1859	53.6698
1858	53.8128
1857	53.5311
1856	53.3737
1855	53.3521
1854	53.1472
1853	53.3534
1852	53.349
1851	53.5733
1850	53.5673
1849	53.2961
1848	53.6397
1847	53.3973
1846	53.3953
1845	53.4454
1844	53.4519
1843	53.4656
1842	53.6206
1841	53.3841
1840	53.5298
1839	53.479
1838	53.2348
1837	53.4586
1836	53.4027
1835	53.612
1834	53.4107
1833	53.3665
1832	53.6373
1831	53.3094
1830	53.2607
1829	53.4586
1828	53.5781
1827	53.2525
1826	53.5452
1825	53.233
1824	53.2705
1823	53.2076
1822	53.2657
1821	53.305
1820	53.2227
1819	53.5795
1818	53.6484
1817	53.199
1816	53.6693
1815	53.4718
1814	53.2325
1813	53.7542
1812	53.2958
1811	53.3563
1810	53.4364
1809	53.1774
1808	53.5734
1807	53.5112
1806	53.4416
1805	53.4205
1804	53.4451
1803	53.4682
1802	53.5673
1801	53.2696
1800	53.4741
1799	53.3935
1798	53.2635
1797	53.5046
1796	53.4962
1795	53.3309
1794	53.3611
1793	53.4132
1792	53.3897
1791	53.6421
1790	53.4303
1789	53.4301
1788	53.2765
1787	53.5344
1786	53.4401
1785	53.3945
1784	53.5413
1783	53.3168
1782	53.2216
1781	53.3984
1780	53.4183
1779	53.4848
1778	53.5894
1777	53.3189
1776	53.4011
1775	53.3416
1774	53.3551
1773	53.5055
1772	53.2865
1771	53.3369
1770	53.4015
1769	53.2683
1768	53.4702
1767	53.4137
1766	53.3219
1765	53.4934
1764	53.4673
1763	53.3284
1762	53.4669
1761	53.2593
1760	53.447
1759	53.3634
1758	53.3447
1757	53.5114
1756	53.2547
1755	53.395
1754	53.4249
1753	53.2652
1752	53.2836
1751	53.3584
1750	53.3425
1749	53.3979
1748	53.3743
1747	53.4761
1746	53.3849
1745	53.3545
1744	53.4255
1743	53.3655
1742	53.2297
1741	53.4639
1740	53.1823
1739	53.4452
1738	53.2942
1737	53.3986
1736	53.5942
1735	53.417
1734	53.3398
1733	53.3865
1732	53.1614
1731	53.2644
1730	53.4032
1729	53.424
1728	53.4991
1727	53.5123
1726	53.4329
1725	53.4178
1724	53.2722
1723	53.3867
1722	53.4779
1721	53.2608
1720	53.4058
1719	53.2608
1718	53.3313
1717	53.5289
1716	53.0991
1715	53.4947
1714	53.375
1713	53.2813
1712	53.2361
1711	53.2343
1710	53.4457
1709	53.3586
1708	53.2765
1707	53.2917
1706	53.4425
1705	53.2692
1704	53.3738
1703	53.2423
1702	53.3584
1701	53.421
1700	53.214
1699	53.3421
1698	53.4716
1697	53.3072
1696	53.4222
1695	53.4299
1694	53.4158
1693	53.3973
1692	53.2194
1691	53.333
1690	53.3997
1689	53.2504
1688	53.5009
1687	53.3367
1686	53.3781
1685	53.6262
1684	53.243
1683	53.2899
1682	53.1287
1681	53.0582
1680	53.4102
1679	53.2374
1678	53.3177
1677	53.4376
1676	53.2343
1675	53.2326
1674	53.3153
1673	53.2381
1672	53.5134
1671	53.1621
1670	53.3103
1669	53.2984
1668	53.2499
1667	53.2959
1666	53.3665
1665	53.1129
1664	53.2794
1663	53.2355
1662	53.1099
1661	53.5554
1660	53.2955
1659	53.4012
1658	53.3491
1657	53.1731
1656	53.2845
1655	53.2487
1654	53.3017
1653	53.3033
1652	53.2614
1651	53.3727
1650	53.3433
1649	53.2405
1648	53.3436
1647	53.1532
1646	53.3362
1645	53.2428
1644	53.0894
1643	53.2729
1642	53.1939
1641	53.248
1640	53.4203
1639	53.1199
1638	53.2539
1637	53.2933
1636	53.2197
1635	53.4639
1634	53.3294
1633	53.2164
1632	53.2691
1631	53.2664
1630	53.2613
1629	53.3444
1628	53.2461
1627	53.2841
1626	53.2262
1625	53.384
1624	53.3155
1623	53.2553
1622	53.3144
1621	53.3409
1620	53.2134
1619	53.3272
1618	53.2727
1617	53.3091
1616	53.2605
1615	53.2144
1614	53.3778
1613	53.3205
1612	53.2098
1611	53.2237
1610	53.2358
1609	53.2532
1608	53.3125
1607	53.1821
1606	53.1495
1605	53.3361
1604	53.2137
1603	53.271
1602	53.2797
1601	53.2822
1600	53.2394
1599	53.2469
1598	53.1744
1597	53.2762
1596	53.2008
1595	53.3431
1594	53.1836
1593	53.136
1592	53.2567
1591	53.3255
1590	53.2955
1589	53.2796
1588	53.2339
1587	53.2248
1586	53.1309
1585	53.246
1584	53.3804
1583	53.2404
1582	53.185
1581	53.1799
1580	53.2554
1579	53.2695
1578	53.4081
1577	53.1776
1576	53.2601
1575	53.1876
1574	53.1368
1573	53.2347
1572	53.2488
1571	53.3021
1570	53.3088
1569	53.1901
1568	53.215
1567	53.1172
1566	53.2653
1565	53.2822
1564	53.0852
1563	53.1754
1562	53.1862
1561	53.2542
1560	53.2083
1559	53.1999
1558	53.2177
1557	53.2633
1556	53.1763
1555	53.1392
1554	53.1798
1553	53.0719
1552	53.0939
1551	53.1879
1550	53.2289
1549	53.1387
1548	53.0879
1547	53.2323
1546	53.1878
1545	53.2132
1544	53.1918
1543	53.114
1542	53.262
1541	53.2438
1540	53.3834
1539	53.2216
1538	53.1875
1537	53.286
1536	53.2317
1535	53.1842
1534	53.3541
1533	53.1729
1532	53.2705
1531	53.2353
1530	53.0691
1529	53.1452
1528	53.2083
1527	53.1922
1526	53.2385
1525	53.1061
1524	53.0871
1523	53.1562
1522	53.1657
1521	53.1514
1520	53.1368
1519	53.0754
1518	53.0785
1517	53.1124
1516	53.0756
1515	53.278
1514	53.136
1513	53.1672
1512	53.2249
1511	53.0272
1510	53.1089
1509	53.159
1508	53.1098
1507	53.2323
1506	53.2203
1505	53.0777
1504	53.2412
1503	53.2073
1502	53.2368
1501	53.1823
1500	53.1776
1499	53.1075
1498	53.0925
1497	53.1193
1496	53.1201
1495	53.2457
1494	53.2049
1493	53.0926
1492	53.1274
1491	53.286
1490	53.1385
1489	53.1656
1488	53.1183
1487	53.1247
1486	53.0725
1485	53.1217
1484	53.1929
1483	53.203
1482	53.1371
1481	53.0759
1480	53.0462
1479	53.0201
1478	53.1258
1477	53.1141
1476	53.0611
1475	53.0891
1474	53.128
1473	53.1211
1472	53.133
1471	53.1001
1470	53.1167
1469	53.1164
1468	53.0443
1467	53.0588
1466	53.0644
1465	53.116
1464	53.0825
1463	53.2221
1462	53.0296
1461	53.0239
1460	53.0948
1459	53.1125
1458	53.0179
1457	53.1534
1456	53.1458
1455	53.1301
1454	53.2662
1453	53.0614
1452	53.0076
1451	53.1297
1450	53.0527
1449	53.1313
1448	53.1611
1447	52.9542
1446	53.1337
1445	53.1252
1444	53.0759
1443	53.0432
1442	53.0119
1441	53.2107
1440	53.1188
1439	53.0666
1438	53.1013
1437	52.9916
1436	53.0217
1435	53.1215
1434	53.0766
1433	53.0868
1432	53.0807
1431	52.9807
1430	53.1176
1429	53.0644
1428	53.0604
1427	53.1394
1426	53.0908
1425	53.0232
1424	53.0891
1423	53.0405
1422	53.0845
1421	53.1225
1420	52.9591
1419	53.1024
1418	53.0469
1417	52.9669
1416	52.974
1415	53.0224
1414	52.9911
1413	53.0127
1412	53.0526
1411	53.0668
1410	53.0579
1409	52.9935
1408	52.9274
1407	52.8714
1406	52.8894
1405	52.9377
1404	53.0163
1403	52.9827
1402	53.0435
1401	53.0807
1400	53.0641
1399	52.8995
1398	52.911
1397	52.9067
1396	52.8172
1395	52.9803
1394	52.7726
1393	52.8672
1392	52.9454
1391	52.9929
1390	53.0314
1389	52.9697
1388	52.9481
1387	52.9983
1386	52.9737
1385	53.1818
1384	53.143
1383	53.2056
1382	53.2155
1381	53.2167
1380	53.0707
1379	52.9685
1378	53.0903
1377	52.9669
1376	53.0064
1375	52.9258
1374	52.8714
1373	52.8604
1372	52.8068
1371	52.928
1370	53.0072
1369	53.1131
1368	53.1615
1367	53.0809
1366	53.0004
1365	52.9411
1364	52.8
1363	52.5323
1362	52.6908
1361	52.6569
1360	52.6795
1359	52.8882
1358	52.8478
1357	52.9554
1356	52.9751
1355	53.0112
1354	53.0031
1353	52.9022
1352	52.9596
1351	52.8741
1350	52.8947
1349	52.8918
1348	52.9366
1347	52.9456
1346	52.8998
1345	52.9856
1344	52.8601
1343	52.9413
1342	52.9171
1341	52.9234
1340	52.8593
1339	52.9268
1338	52.9353
1337	52.9342
1336	52.87
1335	52.9879
1334	52.932
1333	52.8783
1332	52.9365
1331	52.8764
1330	52.9101
1329	52.9425
1328	52.7982
1327	52.9194
1326	52.9169
1325	52.8808
1324	52.8849
1323	52.7867
1322	52.8782
1321	52.9176
1320	52.7635
1319	52.9068
1318	52.8273
1317	52.8627
1316	52.9985
1315	52.8706
1314	52.902
1313	52.9078
1312	52.8449
1311	52.9246
1310	52.9358
1309	52.8281
1308	52.9728
1307	52.8345
1306	52.8041
1305	52.8797
1304	52.812
1303	52.8658
1302	52.8425
1301	52.8535
1300	52.8035
1299	52.7974
1298	52.8408
1297	52.8878
1296	52.8768
1295	52.9354
1294	52.8815
1293	52.7509
1292	52.7601
1291	52.875
1290	52.8232
1289	52.8324
1288	52.8225
1287	52.7774
1286	52.7582
1285	52.7631
1284	52.795
1283	52.7911
